Resistance
504.68
497.41
499.55
500.61
500.05
498.39
501.39
498.93
499.80
498.57
501.57
499.39
500.74
502.63
500.61
499.33
500.61
501.75
498.69
500.38
499.05
499.76
500.91
499.38
498.68
499.15
499.72
498.86
500.18
501.29
499.38
499.68
499.54
500.54
499.29
499.86
499.63
501.29
499.71
501.84
499.49
499.95
498.79
499.16
497.77
500.01
501.73
502.63
498.50
499.36
499.72
500.24
500.39
499.44
499.41
499.78
498.97
500.17
498.75
500.61
498.60
500.14
501.08
498.95
500.62
499.47
503.93
500.86
499.69
499.39
499.67
500.29
499.30
500.85
499.88
500.63
500.64
499.00
497.42
498.54
500.61
499.91
499.04
499.34
497.65
499.64
499.00
500.37
499.14
499.85
499.57
500.55
501.34
498.36
499.03
499.97
501.01
497.01
500.88
501.62
498.09
498.61
500.06
501.85
499.44
501.28
501.69
500.30
497.44
500.67
500.54
498.93
500.32
499.71
501.17
499.95
498.06
499.93
497.89
499.56
500.40
497.52
499.66
498.94
499.38
498.06
499.79
501.36
501.64
500.92
499.24
499.92
501.71
501.13
501.73
499.77
501.87
499.23
499.81
500.16
499.00
499.88
498.78
500.81
498.75
499.08
502.75
498.29
500.71
499.52
499.96
498.93
499.46
500.05
499.11
502.35
499.33
499.20
499.22
500.32
501.47
497.44
499.16
502.23
500.67
500.58
499.94
500.45
501.03
500.37
501.79
499.72
498.40
502.53
501.26
498.76
498.00
498.93
499.75
502.29
499.58
499.02
501.08
497.91
499.72
499.65
500.11
499.23
501.14
498.44
499.26
499
499.44
499.83
498.81
501.23
499.36
498.63
497.83
500.41
498.47
499.47
499.87
498.94
499.49
498.27
498.51
498.21
499.13
498.71
501.67
501.80
499.20
501.78
498.46
500.05
501.71
498.68
500.09
500.65
499.01
501.55
500.28
498.86
500.00
498.71
499.70
498.58
500.12
501.75
501.26
499.58
501.84
501.22
501.74
501.20
501.57
501.04
498.72
499.42
499.58
501.09
498.80
498.97
498.97
498.76
499.28
499.06
498.85
498.25
499.03
505.10
499.30
500.52
501.23
500.12
499.81
501.37
499.92
497.07
501.06
499.15
498.67
501.48
500.11
498.64
499.00
499.11
499.62
500.60
501.59
499.10
